-----------EB Tester Software-----------
Device:EBC-A20
Mode:D-CC  20.00A  2.45V
Begin Volt:4.229V
Cutoff Volt:2.450V
Capacity:3932mAh
Energy:12.81Wh
Avg Volt:3.26V
Title:EB Tester Software
------------www.zketech.com--------------
Time(S),Cur(A),Vol(V)
0,0.00,4.229
1,0.00,4.229
3,20.00,3.849
5,20.00,3.815
7,20.00,3.792
9,20.00,3.773
11,20.00,3.757
13,20.00,3.748
15,20.00,3.734
17,20.00,3.726
19,20.00,3.719
21,20.00,3.711
23,20.00,3.705
25,20.00,3.698
27,20.00,3.697
29,20.00,3.690
31,20.00,3.686
33,20.00,3.683
35,20.00,3.682
37,20.00,3.676
39,20.00,3.676
41,20.00,3.674
43,20.00,3.668
45,20.00,3.668
47,20.00,3.668
49,20.00,3.667
51,20.00,3.662
53,20.00,3.661
55,20.00,3.661
57,20.00,3.660
59,20.00,3.657
61,20.00,3.654
63,20.00,3.654
65,20.00,3.654
67,20.00,3.653
69,20.00,3.649
71,20.00,3.646
73,20.00,3.646
75,20.00,3.646
77,20.00,3.641
79,20.00,3.639
81,20.00,3.639
83,20.00,3.638
85,20.00,3.638
87,20.00,3.632
89,20.00,3.632
91,20.00,3.631
93,20.00,3.629
95,20.00,3.625
97,20.00,3.625
99,20.00,3.625
101,20.00,3.624
103,20.00,3.618
105,20.00,3.617
107,20.00,3.617
109,20.00,3.614
111,20.00,3.610
113,20.00,3.610
115,20.00,3.610
117,20.00,3.609
119,20.00,3.604
121,20.00,3.603
123,20.00,3.603
125,20.00,3.602
127,20.00,3.600
129,20.00,3.595
131,20.00,3.595
133,20.00,3.595
135,20.00,3.594
137,20.00,3.588
139,20.00,3.588
141,20.00,3.588
143,20.00,3.585
145,20.00,3.581
147,20.00,3.581
149,20.00,3.580
151,20.00,3.575
153,20.00,3.573
155,20.00,3.572
157,20.00,3.567
159,20.00,3.566
161,20.00,3.565
163,20.00,3.559
165,20.00,3.559
167,20.00,3.558
169,20.00,3.551
171,20.00,3.551
173,20.00,3.550
175,20.00,3.544
177,20.00,3.543
179,20.00,3.537
181,20.00,3.537
183,20.00,3.536
185,20.00,3.529
187,20.00,3.526
189,20.00,3.522
191,20.00,3.519
193,20.00,3.515
195,20.00,3.508
197,20.00,3.508
199,20.00,3.500
201,20.00,3.497
203,20.00,3.492
205,20.00,3.486
207,20.00,3.485
209,20.00,3.478
211,20.00,3.478
213,20.00,3.477
215,20.00,3.473
217,20.00,3.471
219,20.00,3.464
221,20.00,3.463
223,20.00,3.456
225,20.00,3.456
227,20.00,3.455
229,20.00,3.455
231,20.00,3.449
233,20.00,3.449
235,20.00,3.443
237,20.00,3.442
239,20.00,3.442
241,20.00,3.440
243,20.00,3.434
245,20.00,3.434
247,20.00,3.426
249,20.00,3.425
251,20.00,3.420
253,20.00,3.420
255,20.00,3.419
257,20.00,3.413
259,20.00,3.412
261,20.00,3.405
263,20.00,3.404
265,20.00,3.402
267,20.00,3.398
269,20.00,3.397
271,20.00,3.392
273,20.00,3.391
275,20.00,3.391
277,20.00,3.389
279,20.00,3.383
281,20.00,3.383
283,20.00,3.381
285,20.00,3.376
287,20.00,3.376
289,20.00,3.375
291,20.00,3.370
293,20.00,3.369
295,20.00,3.368
297,20.00,3.361
299,20.00,3.360
301,20.00,3.360
303,20.00,3.354
305,20.00,3.354
307,20.00,3.353
309,20.00,3.347
311,20.00,3.346
313,20.00,3.339
315,20.00,3.338
317,20.00,3.332
319,20.00,3.332
321,20.00,3.332
323,20.00,3.328
325,20.00,3.325
327,20.00,3.324
329,20.00,3.317
331,20.00,3.317
333,20.00,3.317
335,20.00,3.310
337,20.00,3.310
339,20.00,3.303
341,20.00,3.303
343,20.00,3.302
345,20.00,3.296
347,20.00,3.295
349,20.00,3.288
351,20.00,3.288
353,20.00,3.286
355,20.00,3.280
357,20.00,3.280
359,20.00,3.274
361,20.00,3.273
363,20.00,3.266
365,20.00,3.265
367,20.00,3.259
369,20.00,3.259
371,20.00,3.258
373,20.00,3.257
375,20.00,3.251
377,20.00,3.250
379,20.00,3.244
381,20.00,3.243
383,20.00,3.238
385,20.00,3.236
387,20.00,3.230
389,20.00,3.230
391,20.00,3.229
393,20.00,3.222
395,20.00,3.222
397,20.00,3.222
399,20.00,3.222
401,20.00,3.219
403,20.00,3.215
405,20.00,3.214
407,20.00,3.211
409,20.00,3.208
411,20.00,3.206
413,20.00,3.200
415,20.00,3.200
417,20.00,3.195
419,20.00,3.193
421,20.00,3.200
423,20.00,3.192
425,20.00,3.192
427,20.00,3.185
429,20.00,3.185
431,20.00,3.179
433,20.00,3.177
435,20.00,3.173
437,20.00,3.171
439,20.00,3.170
441,20.00,3.163
443,20.00,3.157
445,20.00,3.154
447,20.00,3.150
449,20.00,3.147
451,20.00,3.139
453,20.00,3.130
455,20.00,3.130
457,20.00,3.135
459,20.00,3.134
461,20.00,3.134
463,20.00,3.128
465,20.00,3.127
467,20.00,3.126
469,20.00,3.117
471,20.00,3.112
473,20.00,3.113
475,20.00,3.105
477,20.00,3.111
479,20.00,3.101
481,20.00,3.098
483,20.00,3.091
485,20.00,3.091
487,20.00,3.091
489,20.00,3.084
491,20.00,3.085
493,20.00,3.083
495,20.00,3.076
497,20.00,3.077
499,20.00,3.075
501,20.00,3.075
503,20.00,3.067
505,20.00,3.054
507,20.00,3.054
509,20.00,3.047
511,20.00,3.039
513,20.00,3.040
515,20.00,3.044
517,20.00,3.040
519,20.00,3.038
521,20.00,3.040
523,20.00,3.039
525,20.00,3.029
527,20.00,3.025
529,20.00,3.025
531,20.00,3.025
533,20.00,3.024
535,20.00,3.017
537,20.00,3.015
539,20.00,3.017
541,20.00,3.012
543,20.00,3.010
545,20.00,3.009
547,20.00,3.009
549,20.00,3.008
551,20.00,3.003
553,20.00,2.996
555,20.00,2.995
557,20.00,2.988
559,20.00,2.988
561,20.00,2.988
563,20.00,2.985
565,20.00,2.984
567,20.00,2.987
569,20.00,2.981
571,20.00,2.987
573,20.00,2.981
575,20.00,2.980
577,20.00,2.976
579,20.00,2.969
581,20.00,2.966
583,20.00,2.958
585,20.00,2.958
587,20.00,2.952
589,20.00,2.945
591,20.00,2.936
593,20.00,2.936
595,20.00,2.930
597,20.00,2.923
599,20.00,2.912
601,20.00,2.899
603,20.00,2.900
605,20.00,2.893
607,20.00,2.885
609,20.00,2.882
611,20.00,2.878
613,20.00,2.867
615,20.00,2.865
617,20.00,2.871
619,20.00,2.840
621,20.00,2.838
623,20.00,2.844
625,20.00,2.849
627,20.00,2.850
629,20.00,2.842
631,20.00,2.835
633,20.00,2.820
635,20.00,2.795
637,20.00,2.805
639,20.00,2.801
641,20.00,2.800
643,20.00,2.791
645,20.00,2.790
647,20.00,2.779
649,20.00,2.776
651,20.00,2.769
653,20.00,2.768
655,20.00,2.754
657,20.00,2.723
659,20.00,2.718
661,20.00,2.687
663,20.00,2.693
665,20.00,2.687
667,20.00,2.681
669,20.00,2.670
671,20.00,2.667
673,20.00,2.661
675,20.00,2.659
677,20.00,2.653
679,20.00,2.638
681,20.00,2.630
683,20.00,2.625
685,20.00,2.615
687,20.00,2.606
689,20.00,2.587
691,20.00,2.585
693,20.00,2.571
695,20.00,2.552
697,20.00,2.549
699,20.00,2.535
701,20.00,2.519
703,20.00,2.512
705,20.00,2.499
707,20.00,2.476
709,20.00,2.461
709,20.00,2.450
709,20.00,2.450
711,0.00,2.872
713,0.00,2.901
715,0.00,2.915
717,0.00,2.924
719,0.00,2.931
721,0.00,2.937
723,0.00,2.944
725,0.00,2.945
727,0.00,2.951
729,0.00,2.952
731,0.00,2.952
733,0.00,2.958
735,0.00,2.959
737,0.00,2.959
739,0.00,2.959
741,0.00,2.966
743,0.00,2.966
745,0.00,2.967
747,0.00,2.967
749,0.00,2.967
751,0.00,2.967
753,0.00,2.968
755,0.00,2.973
757,0.00,2.973
759,0.00,2.974
761,0.00,2.974
763,0.00,2.974
765,0.00,2.974
767,0.00,2.974
769,0.00,2.974
771,0.00,2.977
773,0.00,2.979
775,0.00,2.980
777,0.00,2.980
779,0.00,2.981
781,0.00,2.981
783,0.00,2.981
785,0.00,2.981
787,0.00,2.981
789,0.00,2.981
791,0.00,2.981
793,0.00,2.981
795,0.00,2.981
797,0.00,2.981
799,0.00,2.981
801,0.00,2.984
803,0.00,2.986
805,0.00,2.988
807,0.00,2.988
809,0.00,2.988
811,0.00,2.988
813,0.00,2.988
815,0.00,2.988
817,0.00,2.988
819,0.00,2.988
821,0.00,2.988
823,0.00,2.988
